Au (Gold) - Palik

wavelength (microns), Im(index)
0.7828, 4.9442
0.782313, 4.93845
0.781827, 4.9327
0.781342, 4.92695
0.780857, 4.92121
0.780373, 4.91546
0.779889, 4.90973
0.779406, 4.90399
0.778924, 4.89826
0.778442, 4.89253
0.777961, 4.88681
0.777481, 4.88109
0.777, 4.87537
0.776521, 4.86966
0.776042, 4.86394
0.775564, 4.85824
0.775086, 4.85253
0.7749, 4.85031
0.774609, 4.84683
0.774133, 4.84114
0.773657, 4.83544
0.773182, 4.82975
0.772707, 4.82407
0.772233, 4.81839
0.771759, 4.81271
0.771286, 4.80704
0.770814, 4.80137
0.770342, 4.7957
0.769871, 4.79004
0.7694, 4.78438
0.76893, 4.77873
0.768461, 4.77308
0.767992, 4.76744
0.767523, 4.7618
0.767055, 4.75616
0.766588, 4.75053
0.766122, 4.7449
0.765656, 4.73928
0.76519, 4.73366
0.764725, 4.72805
0.764261, 4.72244
0.763797, 4.71683
0.763334, 4.71124
0.762871, 4.70564
0.762409, 4.70005
0.761947, 4.69447
0.761486, 4.68889
0.761026, 4.68331
0.760566, 4.67774
0.760106, 4.67218
0.759648, 4.66662
0.759189, 4.66107
0.758732, 4.65552
0.758274, 4.64998
0.757818, 4.64444
0.757362, 4.63891
0.756906, 4.63338
0.756451, 4.62786
0.755997, 4.62234
0.755543, 4.61683
0.75509, 4.61133
0.754637, 4.60583
0.754185, 4.60034
0.753733, 4.59485
0.753282, 4.58937
0.752831, 4.5839
0.752381, 4.57843
0.751932, 4.57297
0.751483, 4.56751
0.751034, 4.56206
0.750586, 4.55662
0.750139, 4.55118
0.749692, 4.54575
0.749246, 4.54032
0.7488, 4.5349
0.748355, 4.52949
0.74791, 4.52409
0.747466, 4.51869
0.747022, 4.5133
0.746579, 4.50791
0.746137, 4.50253
0.745694, 4.49716
0.745253, 4.49179
0.744812, 4.48644
0.744371, 4.48108
0.743931, 4.47574
0.743492, 4.4704
0.743053, 4.46507
0.742614, 4.45975
0.742176, 4.45443
0.741739, 4.44912
0.741302, 4.44382
0.740866, 4.43853
0.74043, 4.43324
0.739994, 4.42796
0.73956, 4.42269
0.739125, 4.41742
0.738691, 4.41216
0.738258, 4.40691
0.737825, 4.40167
0.737393, 4.39644
0.736961, 4.39121
0.73653, 4.38599
0.736099, 4.38078
0.735669, 4.37557
0.735239, 4.37038
0.73481, 4.36519
0.734381, 4.36001
0.733953, 4.35484
0.733525, 4.34967
0.733098, 4.34452
0.732671, 4.33937
0.732245, 4.33423
0.731819, 4.32909
0.731393, 4.32397
0.730969, 4.31885
0.730544, 4.31375
0.730121, 4.30865
0.729697, 4.30355
0.7293, 4.29878
0.729274, 4.29847
0.728852, 4.2934
0.72843, 4.28833
0.728009, 4.28327
0.727588, 4.27822
0.727168, 4.27318
0.726748, 4.26815
0.726328, 4.26313
0.725909, 4.25811
0.725491, 4.2531
0.725073, 4.2481
0.724655, 4.24311
0.724238, 4.23813
0.723822, 4.23316
0.723406, 4.2282
0.72299, 4.22324
0.722575, 4.2183
0.72216, 4.21336
0.721746, 4.20843
0.721333, 4.20351
0.720919, 4.1986
0.720507, 4.19369
0.720094, 4.1888
0.719683, 4.18392
0.719271, 4.17904
0.718861, 4.17417
0.71845, 4.16932
0.71804, 4.16447
0.717631, 4.15963
0.717222, 4.1548
0.716813, 4.14997
0.716405, 4.14516
0.715998, 4.14036
0.715591, 4.13556
0.715184, 4.13078
0.714778, 4.126
0.714372, 4.12123
0.713967, 4.11647
0.713562, 4.11172
0.713158, 4.10698
0.712754, 4.10225
0.71235, 4.09753
0.711947, 4.09281
0.711545, 4.08811
0.711143, 4.08342
0.710741, 4.07873
0.71034, 4.07405
0.709939, 4.06939
0.709539, 4.06473
0.709139, 4.06008
0.70874, 4.05544
0.708341, 4.05081
0.707942, 4.04619
0.707544, 4.04157
0.707147, 4.03697
0.70675, 4.03238
0.706353, 4.02779
0.705957, 4.02322
0.705561, 4.01865
0.705166, 4.01409
0.704771, 4.00954
0.704376, 4.005
0.703982, 4.00048
0.703589, 3.99595
0.703196, 3.99144
0.702803, 3.98694
0.702411, 3.98245
0.702019, 3.97796
0.701628, 3.97349
0.701237, 3.96902
0.700846, 3.96457
0.700456, 3.96012
0.700066, 3.95568
0.699677, 3.95125
0.699289, 3.94684
0.6989, 3.94242
0.698512, 3.93802
0.698125, 3.93363
0.697738, 3.92925
0.697351, 3.92487
0.696965, 3.92051
0.696579, 3.91615
0.696194, 3.91181
0.695809, 3.90747
0.695424, 3.90314
0.69504, 3.89882
0.694657, 3.89451
0.694274, 3.89021
0.693891, 3.88591
0.693508, 3.88163
0.693126, 3.87736
0.692745, 3.87309
0.692364, 3.86883
0.691983, 3.86458
0.691603, 3.86035
0.691223, 3.85611
0.690844, 3.85189
0.690465, 3.84768
0.690086, 3.84348
0.689708, 3.83928
0.68933, 3.8351
0.688953, 3.83092
0.6888, 3.82923
0.688576, 3.82675
0.688199, 3.82259
0.687823, 3.81844
0.687447, 3.8143
0.687072, 3.81016
0.686697, 3.80604
0.686323, 3.80192
0.685949, 3.79782
0.685575, 3.79372
0.685202, 3.78963
0.684829, 3.78555
0.684456, 3.78147
0.684084, 3.77741
0.683713, 3.77335
0.683341, 3.7693
0.682971, 3.76526
0.6826, 3.76123
0.68223, 3.75721
0.681861, 3.7532
0.681491, 3.74919
0.681122, 3.7452
0.680754, 3.74121
0.680386, 3.73723
0.680018, 3.73326
0.679651, 3.72929
0.679284, 3.72534
0.678918, 3.72139
0.678552, 3.71745
0.678186, 3.71352
0.677821, 3.7096
0.677456, 3.70568
0.677092, 3.70178
0.676727, 3.69788
0.676364, 3.69399
0.676, 3.6901
0.675638, 3.68623
0.675275, 3.68236
0.674913, 3.67851
0.674551, 3.67466
0.67419, 3.67081
0.673829, 3.66698
0.673468, 3.66315
0.673108, 3.65933
0.672748, 3.65552
0.672389, 3.65172
0.67203, 3.64792
0.671671, 3.64414
0.671313, 3.64036
0.670955, 3.63658
0.670597, 3.63282
0.67024, 3.62906
0.669884, 3.62531
0.669527, 3.62157
0.669171, 3.61784
0.668816, 3.61411
0.66846, 3.61039
0.668105, 3.60668
0.667751, 3.60297
0.667397, 3.59928
0.667043, 3.59559
0.66669, 3.5919
0.666337, 3.58823
0.665984, 3.58456
0.665632, 3.5809
0.66528, 3.57725
0.664929, 3.5736
0.664577, 3.56996
0.664227, 3.56633
0.663876, 3.56271
0.663526, 3.55909
0.663177, 3.55548
0.662827, 3.55187
0.662479, 3.54828
0.66213, 3.54469
0.661782, 3.54111
0.661434, 3.53753
0.661087, 3.53396
0.660739, 3.5304
0.660393, 3.52685
0.660046, 3.5233
0.6597, 3.51976
0.659355, 3.51622
0.65901, 3.5127
0.658665, 3.50917
0.65832, 3.50566
0.657976, 3.50215
0.657632, 3.49865
0.657289, 3.49516
0.656946, 3.49167
0.656603, 3.48819
0.65626, 3.48471
0.655918, 3.48124
0.655577, 3.47778
0.655235, 3.47433
0.654894, 3.47088
0.654554, 3.46744
0.654214, 3.464
0.653874, 3.46057
0.653534, 3.45715
0.653195, 3.45373
0.652856, 3.45032
0.6526, 3.44774
0.652518, 3.44691
0.652179, 3.44351
0.651842, 3.44012
0.651504, 3.43673
0.651167, 3.43335
0.65083, 3.42998
0.650494, 3.42661
0.650158, 3.42325
0.649822, 3.41989
0.649487, 3.41654
0.649152, 3.4132
0.648817, 3.40986
0.648483, 3.40653
0.648149, 3.4032
0.647815, 3.39988
0.647482, 3.39656
0.647149, 3.39325
0.646816, 3.38995
0.646484, 3.38665
0.646152, 3.38336
0.645821, 3.38007
0.645489, 3.37679
0.645159, 3.37352
0.644828, 3.37025
0.644498, 3.36698
0.644168, 3.36372
0.643838, 3.36047
0.643509, 3.35722
0.64318, 3.35398
0.642852, 3.35074
0.642524, 3.34751
0.642196, 3.34428
0.641868, 3.34106
0.641541, 3.33785
0.641214, 3.33464
0.640888, 3.33143
0.640561, 3.32823
0.640236, 3.32504
0.63991, 3.32185
0.639585, 3.31867
0.63926, 3.31549
0.638935, 3.31231
0.638611, 3.30914
0.638287, 3.30598
0.637964, 3.30282
0.63764, 3.29967
0.637318, 3.29652
0.636995, 3.29338
0.636673, 3.29024
0.636351, 3.2871
0.636029, 3.28398
0.635708, 3.28085
0.635387, 3.27773
0.635066, 3.27462
0.634746, 3.27151
0.634426, 3.2684
0.634106, 3.2653
0.633787, 3.26221
0.633468, 3.25912
0.633149, 3.25603
0.632831, 3.25295
0.632513, 3.24988
0.632195, 3.2468
0.631878, 3.24374
0.631561, 3.24067
0.631244, 3.23762
0.630928, 3.23456
0.630611, 3.23151
0.630296, 3.22847
0.62998, 3.22543
0.629665, 3.22239
0.62935, 3.21936
0.629035, 3.21633
0.628721, 3.21331
0.628407, 3.21029
0.628094, 3.20728
0.62778, 3.20427
0.627467, 3.20126
0.627155, 3.19826
0.626842, 3.19527
0.62653, 3.19227
0.626218, 3.18929
0.625907, 3.1863
0.625596, 3.18332
0.625285, 3.18035
0.624975, 3.17737
0.624664, 3.17441
0.624354, 3.17144
0.624045, 3.16848
0.623736, 3.16553
0.623427, 3.16258
0.623118, 3.15963
0.62281, 3.15668
0.622502, 3.15374
0.622194, 3.15081
0.621886, 3.14788
0.621579, 3.14495
0.621272, 3.14203
0.620966, 3.13911
0.62066, 3.13619
0.620354, 3.13328
0.620048, 3.13037
0.6199, 3.12896
0.619743, 3.12746
0.619438, 3.12456
0.619133, 3.12166
0.618828, 3.11877
0.618524, 3.11588
0.618221, 3.11299
0.617917, 3.11011
0.617614, 3.10723
0.617311, 3.10436
0.617008, 3.10149
0.616706, 3.09862
0.616404, 3.09575
0.616102, 3.09289
0.615801, 3.09003
0.615499, 3.08718
0.615199, 3.08433
0.614898, 3.08148
0.614598, 3.07864
0.614298, 3.0758
0.613998, 3.07296
0.613699, 3.07013
0.613399, 3.0673
0.613101, 3.06447
0.612802, 3.06165
0.612504, 3.05883
0.612206, 3.05601
0.611908, 3.0532
0.611611, 3.05039
0.611314, 3.04758
0.611017, 3.04478
0.61072, 3.04198
0.610424, 3.03918
0.610128, 3.03639
0.609833, 3.0336
0.609537, 3.03081
0.609242, 3.02803
0.608947, 3.02525
0.608653, 3.02247
0.608359, 3.01969
0.608065, 3.01692
0.607771, 3.01415
0.607478, 3.01139
0.607185, 3.00863
0.606892, 3.00587
0.606599, 3.00311
0.606307, 3.00036
0.606015, 2.99761
0.605724, 2.99486
0.605432, 2.99211
0.605141, 2.98937
0.60485, 2.98663
0.60456, 2.9839
0.604269, 2.98117
0.603979, 2.97844
0.60369, 2.97571
0.6034, 2.97299
0.603111, 2.97027
0.602822, 2.96755
0.602534, 2.96483
0.602245, 2.96212
0.601957, 2.95941
0.601669, 2.9567
0.601382, 2.954
0.601095, 2.9513
0.600808, 2.9486
0.600521, 2.9459
0.600235, 2.94321
0.599948, 2.94052
0.599663, 2.93783
0.599377, 2.93515
0.599092, 2.93246
0.598807, 2.92978
0.598522, 2.92711
0.598237, 2.92443
0.597953, 2.92176
0.597669, 2.91909
0.597385, 2.91642
0.597102, 2.91376
0.596819, 2.9111
0.596536, 2.90844
0.596253, 2.90578
0.595971, 2.90313
0.595689, 2.90048
0.595407, 2.89783
0.595126, 2.89518
0.594844, 2.89254
0.594563, 2.8899
0.594283, 2.88726
0.594002, 2.88462
0.593722, 2.88199
0.593442, 2.87936
0.593162, 2.87673
0.592883, 2.8741
0.592604, 2.87148
0.592325, 2.86886
0.592046, 2.86624
0.591768, 2.86362
0.591489, 2.86101
0.591212, 2.85839
0.590934, 2.85578
0.590657, 2.85318
0.5904, 2.85076
0.59038, 2.85057
0.590103, 2.84797
0.589826, 2.84537
0.58955, 2.84277
0.589274, 2.84017
0.588998, 2.83758
0.588723, 2.83499
0.588447, 2.8324
0.588172, 2.82981
0.587898, 2.82723
0.587623, 2.82464
0.587349, 2.82206
0.587075, 2.81949
0.586801, 2.81691
0.586528, 2.81434
0.586254, 2.81176
0.585981, 2.8092
0.585709, 2.80663
0.585436, 2.80406
0.585164, 2.8015
0.584892, 2.79894
0.58462, 2.79638
0.584349, 2.79382
0.584078, 2.79127
0.583807, 2.78872
0.583536, 2.78617
0.583266, 2.78362
0.582995, 2.78107
0.582726, 2.77853
0.582456, 2.77599
0.582186, 2.77345
0.581917, 2.77091
0.581648, 2.76838
0.58138, 2.76584
0.581111, 2.76331
0.580843, 2.76078
0.580575, 2.75826
0.580307, 2.75573
0.58004, 2.75321
0.579773, 2.75069
0.579506, 2.74817
0.579239, 2.74565
0.578972, 2.74313
0.578706, 2.74062
0.57844, 2.73811
0.578175, 2.7356
0.577909, 2.73309
0.577644, 2.73059
0.577379, 2.72808
0.577114, 2.72558
0.576849, 2.72308
0.576585, 2.72059
0.576321, 2.71809
0.576057, 2.7156
0.575794, 2.7131
0.57553, 2.71061
0.575267, 2.70813
0.575005, 2.70564
0.574742, 2.70316
0.57448, 2.70067
0.574218, 2.69819
0.573956, 2.69571
0.573694, 2.69324
0.573433, 2.69076
0.573171, 2.68829
0.572911, 2.68582
0.57265, 2.68335
0.572389, 2.68088
0.572129, 2.67842
0.571869, 2.67595
0.571609, 2.67349
0.57135, 2.67103
0.571091, 2.66857
0.570832, 2.66612
0.570573, 2.66366
0.570314, 2.66121
0.570056, 2.65876
0.569798, 2.65631
0.56954, 2.65386
0.569282, 2.65142
0.569025, 2.64897
0.568768, 2.64653
0.568511, 2.64409
0.568254, 2.64165
0.567998, 2.63922
0.567742, 2.63678
0.567486, 2.63435
0.56723, 2.63192
0.566974, 2.62949
0.566719, 2.62706
0.566464, 2.62464
0.566209, 2.62221
0.565954, 2.61979
0.5657, 2.61737
0.565446, 2.61495
0.565192, 2.61254
0.564938, 2.61012
0.564685, 2.60771
0.564431, 2.6053
0.564178, 2.60289
0.563926, 2.60048
0.563673, 2.59807
0.5636, 2.59738
0.563421, 2.59567
0.563169, 2.59327
0.562917, 2.59087
0.562665, 2.58847
0.562414, 2.58607
0.562162, 2.58367
0.561911, 2.58128
0.561661, 2.57889
0.56141, 2.5765
0.56116, 2.57411
0.56091, 2.57172
0.56066, 2.56934
0.56041, 2.56696
0.560161, 2.56457
0.559911, 2.56219
0.559662, 2.55982
0.559414, 2.55744
0.559165, 2.55507
0.558917, 2.55269
0.558669, 2.55032
0.558421, 2.54795
0.558173, 2.54559
0.557926, 2.54322
0.557678, 2.54086
0.557431, 2.5385
0.557185, 2.53613
0.556938, 2.53378
0.556692, 2.53142
0.556446, 2.52907
0.5562, 2.52671
0.555954, 2.52436
0.555708, 2.52201
0.555463, 2.51966
0.555218, 2.51732
0.554973, 2.51497
0.554729, 2.51263
0.554484, 2.51029
0.55424, 2.50795
0.553996, 2.50561
0.553752, 2.50328
0.553509, 2.50095
0.553266, 2.49861
0.553022, 2.49629
0.552779, 2.49396
0.552537, 2.49163
0.552294, 2.48931
0.552052, 2.48698
0.55181, 2.48466
0.551568, 2.48235
0.551327, 2.48003
0.551085, 2.47771
0.550844, 2.4754
0.550603, 2.47309
0.550362, 2.47078
0.550122, 2.46847
0.549881, 2.46617
0.549641, 2.46386
0.549401, 2.46156
0.549161, 2.45926
0.548922, 2.45696
0.548683, 2.45467
0.548443, 2.45237
0.548205, 2.45008
0.547966, 2.44779
0.547727, 2.4455
0.547489, 2.44321
0.547251, 2.44093
0.547013, 2.43865
0.546776, 2.43637
0.546538, 2.43409
0.546301, 2.43181
0.546064, 2.42954
0.545827, 2.42726
0.54559, 2.42499
0.545354, 2.42272
0.545118, 2.42046
0.544882, 2.41819
0.544646, 2.41593
0.54441, 2.41367
0.544175, 2.41141
0.54394, 2.40915
0.543705, 2.4069
0.54347, 2.40464
0.543235, 2.40239
0.543001, 2.40015
0.542767, 2.3979
0.542533, 2.39566
0.542299, 2.39341
0.542065, 2.39117
0.541832, 2.38894
0.541599, 2.3867
0.541366, 2.38447
0.541133, 2.38223
0.540901, 2.38001
0.540668, 2.37778
0.540436, 2.37555
0.540204, 2.37333
0.539972, 2.37111
0.539741, 2.36889
0.539509, 2.36668
0.539278, 2.36446
0.5391, 2.36276
0.539047, 2.36225
0.538816, 2.36004
0.538586, 2.35784
0.538355, 2.35563
0.538125, 2.35343
0.537895, 2.35123
0.537665, 2.34903
0.537436, 2.34684
0.537206, 2.34464
0.536977, 2.34245
0.536748, 2.34026
0.536519, 2.33808
0.536291, 2.3359
0.536062, 2.33372
0.535834, 2.33154
0.535606, 2.32936
0.535378, 2.32719
0.535151, 2.32502
0.534923, 2.32285
0.534696, 2.32068
0.534469, 2.31852
0.534242, 2.31636
0.534015, 2.3142
0.533789, 2.31205
0.533562, 2.30989
0.533336, 2.30774
0.53311, 2.30559
0.532885, 2.30345
0.532659, 2.30131
0.532434, 2.29917
0.532209, 2.29703
0.531984, 2.2949
0.531759, 2.29277
0.531534, 2.29064
0.53131, 2.28851
0.531086, 2.28639
0.530862, 2.28427
0.530638, 2.28215
0.530414, 2.28004
0.530191, 2.27792
0.529967, 2.27582
0.529744, 2.27371
0.529521, 2.27161
0.529299, 2.26951
0.529076, 2.26741
0.528854, 2.26532
0.528632, 2.26323
0.52841, 2.26114
0.528188, 2.25905
0.527966, 2.25697
0.527745, 2.25489
0.527524, 2.25282
0.527303, 2.25075
0.527082, 2.24868
0.526861, 2.24661
0.526641, 2.24455
0.526421, 2.24249
0.5262, 2.24043
0.525981, 2.23838
0.525761, 2.23633
0.525541, 2.23428
0.525322, 2.23224
0.525103, 2.2302
0.524884, 2.22817
0.524665, 2.22613
0.524446, 2.2241
0.524228, 2.22208
0.52401, 2.22006
0.523791, 2.21804
0.523574, 2.21602
0.523356, 2.21401
0.523138, 2.212
0.522921, 2.21
0.522704, 2.208
0.522487, 2.206
0.52227, 2.20401
0.522053, 2.20202
0.521837, 2.20003
0.521621, 2.19805
0.521404, 2.19607
0.521188, 2.1941
0.520973, 2.19213
0.520757, 2.19016
0.520542, 2.1882
0.520327, 2.18624
0.520112, 2.18429
0.519897, 2.18234
0.519682, 2.18039
0.519467, 2.17845
0.519253, 2.17651
0.519039, 2.17458
0.518825, 2.17265
0.518611, 2.17073
0.518398, 2.1688
0.518184, 2.16689
0.517971, 2.16498
0.517758, 2.16307
0.517545, 2.16116
0.517332, 2.15927
0.51712, 2.15737
0.516907, 2.15548
0.516695, 2.1536
0.5166, 2.15275
0.516483, 2.15171
0.516271, 2.14984
0.516059, 2.14797
0.515848, 2.1461
0.515636, 2.14424
0.515425, 2.14238
0.515214, 2.14053
0.515003, 2.13868
0.514793, 2.13683
0.514582, 2.135
0.514372, 2.13316
0.514162, 2.13133
0.513952, 2.12951
0.513742, 2.12769
0.513532, 2.12588
0.513323, 2.12407
0.513114, 2.12227
0.512905, 2.12047
0.512696, 2.11868
0.512487, 2.11689
0.512278, 2.11511
0.51207, 2.11333
0.511862, 2.11156
0.511653, 2.10979
0.511446, 2.10803
0.511238, 2.10628
0.51103, 2.10453
0.510823, 2.10278
0.510616, 2.10104
0.510408, 2.09931
0.510202, 2.09758
0.509995, 2.09586
0.509788, 2.09415
0.509582, 2.09244
0.509376, 2.09073
0.509169, 2.08903
0.508964, 2.08734
0.508758, 2.08566
0.508552, 2.08398
0.508347, 2.0823
0.508142, 2.08063
0.507936, 2.07897
0.507732, 2.07732
0.507527, 2.07567
0.507322, 2.07402
0.507118, 2.07239
0.506914, 2.07076
0.506709, 2.06913
0.506505, 2.06752
0.506302, 2.06591
0.506098, 2.0643
0.505895, 2.0627
0.505691, 2.06111
0.505488, 2.05953
0.505285, 2.05795
0.505083, 2.05638
0.50488, 2.05481
0.504677, 2.05326
0.504475, 2.05171
0.504273, 2.05016
0.504071, 2.04863
0.503869, 2.0471
0.503668, 2.04558
0.503466, 2.04406
0.503265, 2.04255
0.503064, 2.04105
0.502863, 2.03956
0.502662, 2.03807
0.502461, 2.03659
0.502261, 2.03512
0.50206, 2.03366
0.50186, 2.0322
0.50166, 2.03076
0.50146, 2.02931
0.50126, 2.02788
0.501061, 2.02646
0.500861, 2.02504
0.500662, 2.02363
0.500463, 2.02223
0.500264, 2.02083
0.500065, 2.01945
0.499867, 2.01807
0.499668, 2.0167
0.49947, 2.01533
0.499272, 2.01398
0.499074, 2.01264
0.498876, 2.0113
0.498678, 2.00997
0.498481, 2.00865
0.498283, 2.00734
0.498086, 2.00603
0.497889, 2.00474
0.497692, 2.00345
0.497496, 2.00217
0.497299, 2.0009
0.497103, 1.99964
0.496906, 1.99839
0.49671, 1.99715
0.496514, 1.99591
0.496318, 1.99468
0.496123, 1.99347
0.495927, 1.99226
0.4959, 1.99209
0.495732, 1.99106
0.495537, 1.98987
0.495342, 1.98869
0.495147, 1.98752
0.494952, 1.98636
0.494757, 1.98521
0.494563, 1.98406
0.494369, 1.98293
0.494175, 1.9818
0.493981, 1.98069
0.493787, 1.97958
0.493593, 1.97849
0.4934, 1.9774
0.493206, 1.97632
0.493013, 1.97526
0.49282, 1.9742
0.492627, 1.97315
0.492434, 1.97211
0.492242, 1.97109
0.492049, 1.97007
0.491857, 1.96906
0.491665, 1.96806
0.491473, 1.96708
0.491281, 1.9661
0.491089, 1.96513
0.490898, 1.96417
0.490706, 1.96323
0.490515, 1.96229
0.490324, 1.96136
0.490133, 1.96045
0.489942, 1.95954
0.489752, 1.95865
0.489561, 1.95777
0.489371, 1.95689
0.48918, 1.95603
0.48899, 1.95518
0.4888, 1.95434
0.488611, 1.95351
0.488421, 1.95269
0.488232, 1.95188
0.488042, 1.95108
0.487853, 1.95029
0.487664, 1.94952
0.487475, 1.94875
0.487286, 1.948
0.487098, 1.94725
0.486909, 1.94652
0.486721, 1.9458
0.486533, 1.94509
0.486345, 1.94439
0.486157, 1.94371
0.485969, 1.94303
0.485782, 1.94237
0.485594, 1.94172
0.485407, 1.94108
0.48522, 1.94045
0.485033, 1.93983
0.484846, 1.93922
0.484659, 1.93863
0.484473, 1.93805
0.484286, 1.93747
0.4841, 1.93691
0.483914, 1.93637
0.483728, 1.93583
0.483542, 1.93531
0.483356, 1.9348
0.483171, 1.9343
0.482985, 1.93381
0.4828, 1.93333


Au (Gold) - Palik

wavelength (microns), Im(index)
9.919, 54.7
9.537, 53.1
9.164, 51.6
8.856, 50.2
8.551, 48.8
8.266, 47.6
7.999, 46.4
7.749, 45.2
7.514, 44.1
7.293, 43
7.085, 42
6.888, 41
6.702, 40.1
6.526, 39.1
6.358, 38.3
6.199, 37.5
5.904, 35.9
5.636, 34.3
5.391, 32.9
5.166, 31.7
4.959, 30.5
4.769, 29.3
4.592, 28.2
4.426, 27.2
4.275, 26.3
4.133, 25.4
4, 24.6
3.875, 23.9
3.757, 23.1
3.647, 22.5
3.542, 21.9
3.444, 21.3
3.351, 20.7
3.263, 20.2
3.179, 19.7
3.1, 19.2
2.952, 18.3
2.818, 17.5
2.695, 16.8
2.583, 16.1
2.46, 15.5
2.384, 14.9
2.296, 14.4
2.214, 13.9
2.138, 13.4
2.066, 13
2, 12.6
1.937, 12.2
1.879, 11.9
1.823, 11.5
1.771, 11.2
1.712, 10.9
1.675, 10.6
1.631, 10.3
1.59, 10.1
1.55, 9.81
1.512, 9.58
1.476, 9.36
1.442, 9.15
1.409, 8.96
1.378, 8.77
1.319, 8.42
1.291, 8.25
1.265, 8.09
1.24, 8.77
1.127, 7.93
1.033, 7.07
0.9537, 6.47
0.8856, 5.88
0.8266, 5.39
0.7749, 4.86
0.7293, 4.35
0.6888, 3.8
0.6526, 3.15
0.6199, 3
0.5904, 3
0.5636, 2.88
0.5391, 2.54
0.5166, 2.12
0.4959, 1.84
0.4769, 1.796
0.4592, 1.846
0.4428, 1.904
0.4275, 1.94
0.4133, 1.958
0.4, 1.956
0.3875, 1.936
0.3757, 1.906
0.3647, 1.861
0.3542, 1.846
0.3444, 1.845
0.3351, 1.86
0.3263, 1.878
0.3179, 1.904
0.31, 1.916
0.3024, 1.92
0.2952, 1.918
0.2883, 1.9
0.2818, 1.882
0.2755, 1.852
0.2695, 1.822
0.2638, 1.784
0.2583, 1.748
0.253, 1.698
0.248, 1.636
0.2431, 1.59
0.2384, 1.55
0.2339, 1.51
0.2296, 1.478
0.2254, 1.442
0.2214, 1.418
0.2175, 1.388
0.2138, 1.364
0.2101, 1.334
0.2066, 1.306
0.2, 1.215
0.195, 1.17
0.19, 1.135
0.185, 1.107
0.18, 1.085
0.175, 1.07
0.17, 1.07
0.165, 1.093
0.16, 1.106
0.155, 1.108
0.15, 1.102
0.145, 1.089
0.14, 1.072
0.139, 1.067
0.138, 1.063
0.137, 1.058
0.136, 1.053
0.135, 1.05
0.134, 1.045
0.133, 1.038
0.132, 1.032
0.131, 1.027
0.13, 1.02
0.129, 1.017
0.127, 1.005
0.126, 1
0.126, 1.012
0.125, 0.994
0.124, 0.987
0.123, 0.982
0.122, 0.975
0.121, 0.967
0.12, 0.962
0.119, 0.955
0.117, 0.942
0.116, 0.935
0.116, 0.95
0.115, 0.932
0.114, 0.927
0.113, 0.922
0.112, 0.914
0.111, 0.907
0.11, 0.9
0.109, 0.893
0.108, 0.885
0.107, 0.878
0.106, 0.87
0.105, 0.865
0.104, 0.86
0.103, 0.853
0.102, 0.848
0.101, 0.842
0.1, 0.836
0.099, 0.831
0.098, 0.826
0.097, 0.823
0.096, 0.819
0.095, 0.815
0.094, 0.812
0.093, 0.809
0.092, 0.806
0.091, 0.801
0.09, 0.798
0.089, 0.793
0.088, 0.789
0.087, 0.784
0.086, 0.78
0.085, 0.775
0.084, 0.77
0.083, 0.765
0.082, 0.759
0.081, 0.752
0.08, 0.745
0.079, 0.739
0.078, 0.73
0.077, 0.72
0.076, 0.713
0.075, 0.704
0.074, 0.697
0.073, 0.69
0.072, 0.685
0.071, 0.68
0.07, 0.678
0.069, 0.68
0.068, 0.687
0.067, 0.694
0.066, 0.7
0.065, 0.71
0.064, 0.73
0.063, 0.75
0.062, 0.77
0.061, 0.795
0.06, 0.813
0.059, 0.83
0.058, 0.842
0.057, 0.85
0.056, 0.848
0.055, 0.84
0.054, 0.825
0.053, 0.795
0.052, 0.74
0.051, 0.695
0.05, 0.645
0.049, 0.6
0.048, 0.565
0.04768, 0.679
0.047, 0.548
0.04592, 0.635
0.04428, 0.607
0.04275, 0.599
0.04203, 0.601
0.04133, 0.603
0.04065, 0.601
0.03999, 0.596
0.03874, 0.57
0.03757, 0.515
0.03646, 0.473
0.03542, 0.439
0.03444, 0.414
0.03351, 0.391
0.03263, 0.371
0.03179, 0.353
0.03099, 0.334
0.03024, 0.317
0.02952, 0.303
0.02883, 0.292
0.02816, 0.282
0.02755, 0.27
0.02695, 0.254
0.02636, 0.238
0.02583, 0.225
0.0253, 0.213
0.0248, 0.204
0.02384, 0.19
0.02296, 0.18
0.02214, 0.171
0.02136, 0.166
0.02066, 0.162
0.02, 0.156
0.01937, 0.147
0.01876, 0.136
0.01823, 0.124
0.01771, 0.112
0.01722, 0.0997
0.01675, 0.0927
0.01631, 0.0871
0.01589, 0.0816
0.0155, 0.0751
0.01512, 0.0682
0.01494, 0.0653
0.01485, 0.0637
0.01476, 0.0633
0.01467, 0.0654
0.01459, 0.0648
0.01442, 0.0613
0.01425, 0.0576
0.01417, 0.0558
0.01409, 0.0554
0.0124, 0.0454
0.01181, 0.0353
0.01127, 0.0283
0.01033, 0.0178
0.008265, 0.0101
0.006888, 0.0107
0.006199, 0.0115
0.005636, 0.0118
0.004769, 0.0106
0.004133, 0.00695
0.003136, 0.00615
0.002742, 0.0061
0.002478, 0.0056
0.002362, 0.00376
0.002164, 0.00285
0.001945, 0.00268
0.001759, 0.00234
0.001597, 0.00186
0.001456, 0.00157
0.001334, 0.00123
0.001225, 0.0009
0.001044, 0.000533
0.000989, 0.00044
0.000834, 0.00031
0.0008, 0.000267
0.0007, 0.000168
0.0006, 9.88e-05
0.0005, 0.000236
0.0004, 0.00012
0.00035, 9.07e-05
0.0003, 5.25e-05
0.00025, 2.75e-05
0.0002, 1.25e-05
0.000175, 7.78e-06
0.00015, 4.52e-06
0.000145, 4.02e-06
0.000135, 3.13e-06
0.000125, 2.39e-06


